t [s],u [deg],y [deg],i [A]
0.000000,-0.000833,0.003662,-0.001678
0.000050,-0.001030,0.001831,-0.001831
0.000100,-0.000793,0.006104,-0.033417
0.000150,-0.000288,0.000610,-0.014343
0.000200,0.000189,-0.006104,0.007629
0.000250,0.000510,0.012207,-0.006104
0.000300,0.000154,0.000000,-0.011444
0.000350,-0.000637,0.006104,-0.017548
0.000400,-0.000794,0.003052,-0.001068
0.000450,0.000020,0.003662,-0.021820
0.000500,0.000510,0.014038,-0.003815
0.000550,-0.000705,0.013428,-0.002136
0.000600,-0.002109,-0.001221,-0.014191
0.000650,-0.001937,0.005493,-0.027618
0.000700,-0.001523,-0.006104,-0.019226
0.000750,-0.001803,0.006714,-0.020905
0.000800,-0.002201,-0.007324,-0.033112
0.000850,-0.002462,-0.006714,-0.016937
0.000900,-0.001923,-0.010986,-0.014343
0.000950,-0.000884,-0.005493,-0.026398
0.001000,-0.000113,0.004272,-0.048523
0.001050,0.000301,-0.002441,-0.016937
0.001100,0.000813,0.006714,-0.004730
0.001150,0.001668,-0.007324,-0.004883
0.001200,0.001892,0.005493,-0.012207
0.001250,0.001277,0.002441,0.010681
0.001300,0.000538,0.003052,-0.020447
0.001350,-0.000653,-0.001221,-0.000458
0.001400,-0.002405,0.007935,-0.027618
0.001450,-0.002995,-0.001831,-0.021057
0.001500,-0.002081,0.004883,-0.007019
0.001550,-0.001060,-0.006714,-0.019531
0.001600,0.000022,-0.006714,0.008545
0.001650,0.001215,0.002441,-0.003967
0.001700,0.002105,0.000000,0.000305
0.001750,0.002182,-0.001831,-0.005035
0.001800,0.001515,0.000610,0.013885
0.001850,0.000733,0.014038,-0.005341
0.001900,-0.000211,-0.010986,0.002594
0.001950,-0.000666,0.018311,-0.019836
0.002000,-0.000364,0.000610,-0.006409
0.002050,-0.000306,0.009766,-0.022125
0.002100,-0.000590,-0.000610,0.005798
0.002150,-0.000596,-0.004883,-0.016785
0.002200,-0.000617,0.010376,-0.008392
0.002250,-0.001160,0.006104,-0.002594
0.002300,-0.001448,0.001221,-0.010223
0.002350,-0.001267,0.003662,-0.017242
0.002400,-0.000842,-0.000610,-0.030518
0.002450,0.000006,0.002441,0.004730
0.002500,0.000260,0.011597,-0.024261
0.002550,-0.000126,-0.003662,-0.039978
0.002600,-0.000212,-0.004883,-0.025482
0.002650,0.000092,-0.009766,-0.010529
0.002700,0.000536,-0.004272,-0.015411
0.002750,0.000592,-0.001221,-0.008392
0.002800,0.000048,-0.001221,-0.016174
0.002850,-0.000704,-0.005493,0.003357
0.002900,-0.001429,0.000000,-0.014496
0.002950,-0.001723,0.005493,-0.029449
0.003000,-0.001168,-0.003052,0.006714
0.003050,-0.000590,-0.003662,0.009460
0.003100,-0.000046,0.000000,-0.008087
0.003150,0.000321,0.009766,-0.022736
0.003200,-0.000276,-0.004883,-0.014496
0.003250,-0.000515,0.005493,-0.019226
0.003300,-0.000075,-0.002441,-0.015869
0.003350,-0.000008,-0.009155,-0.007019
0.003400,0.000061,0.006104,-0.005798
0.003450,0.000238,-0.009766,0.014191
0.003500,0.000236,0.001831,-0.045319
0.003550,0.000031,-0.005493,-0.014801
0.003600,-0.000616,0.010376,-0.003204
0.003650,-0.001556,0.014648,-0.028687
0.003700,-0.002217,-0.004883,0.006714
0.003750,-0.002140,-0.003052,-0.017548
0.003800,-0.001874,0.014648,-0.030823
0.003850,-0.001748,0.006714,-0.033569
0.003900,-0.001207,-0.006104,-0.002594
0.003950,-0.000669,0.008545,-0.007629
0.004000,-0.000538,0.013428,0.011902
0.004050,-0.000467,-0.014648,-0.000458
0.004100,-0.000107,-0.003662,-0.022125
0.004150,-0.000194,-0.001831,-0.025024
0.004200,-0.000964,-0.000610,0.002747
0.004250,-0.001318,-0.000610,-0.019379
0.004300,-0.001186,-0.000610,-0.037384
0.004350,-0.000405,0.015259,-0.015869
0.004400,0.000389,-0.000610,0.001526
0.004450,0.000770,-0.005493,-0.009003
0.004500,0.001148,0.000610,-0.012360
0.004550,0.000714,-0.006104,-0.013275
0.004600,0.000393,-0.009155,-0.019073
0.004650,0.000601,-0.006714,-0.013580
0.004700,0.000139,-0.003662,-0.033417
0.004750,-0.000236,-0.001221,-0.013275
0.004800,0.000347,-0.003052,-0.025787
0.004850,0.000948,-0.003052,-0.010986
0.004900,0.001065,0.009155,-0.008087
0.004950,0.001070,-0.007324,0.030518
0.005000,0.000564,0.000000,-0.018005
0.005050,-0.000350,-0.001221,0.004883
0.005100,-0.000729,-0.002441,-0.025024
0.005150,-0.000395,0.004272,-0.032654
0.005200,-0.000113,0.000610,-0.017700
0.005250,-0.000018,0.015259,0.001831
0.005300,0.000644,0.000610,-0.025635
0.005350,0.001363,0.004883,-0.011292
0.005400,0.000824,-0.014038,0.008087
0.005450,-0.000434,0.007935,-0.005035
0.005500,-0.001216,0.007935,-0.032043
0.005550,-0.001855,-0.006104,-0.018005
0.005600,-0.003035,0.000610,-0.016174
0.005650,-0.004929,-0.003662,-0.023346
0.005700,-0.008126,0.004883,-0.029297
0.005750,-0.012798,-0.016479,-0.017395
0.005800,-0.019351,-0.001831,-0.017548
0.005850,-0.027621,-0.007935,-0.021820
0.005900,-0.035958,0.001831,-0.047913
0.005950,-0.044038,0.001221,-0.033722
0.006000,-0.051824,-0.011597,-0.039673
0.006050,-0.057995,-0.015259,-0.047150
0.006100,-0.060834,-0.012817,-0.022736
0.006150,-0.059396,-0.032959,-0.004730
0.006200,-0.051972,-0.034180,0.002899
0.006250,-0.037112,-0.050049,0.033264
0.006300,-0.014676,-0.044556,0.058899
0.006350,0.018013,-0.065308,0.076599
0.006400,0.062338,-0.057983,0.081482
0.006450,0.117533,-0.042114,0.112915
0.006500,0.185216,-0.018311,0.122986
0.006550,0.264950,-0.002441,0.152130
0.006600,0.353684,0.032349,0.198212
0.006650,0.448472,0.077515,0.196991
0.006700,0.545624,0.139771,0.162659
0.006750,0.641360,0.209961,0.133667
0.006800,0.732003,0.275879,0.111694
0.006850,0.813810,0.366821,0.069427
0.006900,0.882831,0.441284,0.051880
0.006950,0.935405,0.548096,-0.044708
0.007000,0.969231,0.626221,-0.095520
0.007050,0.983045,0.722046,-0.162811
0.007100,0.975408,0.791016,-0.212555
0.007150,0.946600,0.859985,-0.261230
0.007200,0.899555,0.891113,-0.283356
0.007250,0.836249,0.935059,-0.319824
0.007300,0.758124,0.939331,-0.331573
0.007350,0.669296,0.941772,-0.308228
0.007400,0.575256,0.900269,-0.266571
0.007450,0.480077,0.847778,-0.232544
0.007500,0.386532,0.801392,-0.196533
0.007550,0.297507,0.715942,-0.128632
0.007600,0.216262,0.640869,-0.071869
0.007650,0.144772,0.546875,0.013885
0.007700,0.084044,0.468140,0.063171
0.007750,0.034667,0.363770,0.100098
0.007800,-0.004295,0.281982,0.096130
0.007850,-0.033536,0.207520,0.125122
0.007900,-0.052599,0.137329,0.158844
0.007950,-0.062494,0.075073,0.161285
0.008000,-0.065761,0.032349,0.133820
0.008050,-0.064240,0.006104,0.137634
0.008100,-0.059050,-0.026855,0.099640
0.008150,-0.051365,-0.028076,0.084076
0.008200,-0.042703,-0.050049,0.069733
0.008250,-0.034865,-0.056152,0.055084
0.008300,-0.027720,-0.046997,0.021210
0.008350,-0.020271,-0.048828,-0.021210
0.008400,-0.013702,-0.048828,-0.003052
0.008450,-0.008738,-0.035400,-0.053253
0.008500,-0.005012,-0.026245,-0.041199
0.008550,-0.002293,-0.031738,-0.032806
0.008600,-0.000600,-0.021362,-0.027924
0.008650,-0.000129,-0.007324,-0.038910
0.008700,-0.000493,0.001831,-0.042877
0.008750,-0.000741,0.010376,-0.010223
0.008800,-0.001100,0.004883,-0.029755
0.008850,-0.001877,0.003662,-0.017395
0.008900,-0.002115,0.012207,0.001831
0.008950,-0.001931,0.002441,-0.026093
0.009000,-0.001587,0.003662,0.011292
0.009050,-0.001002,0.004883,-0.020294
0.009100,-0.000776,0.009155,0.004883
0.009150,-0.001162,0.003052,-0.011902
0.009200,-0.001559,0.003662,-0.023193
0.009250,-0.001761,0.000610,-0.017242
0.009300,-0.002241,0.006104,0.009308
0.009350,-0.003170,0.017090,-0.030212
0.009400,-0.003756,0.010376,-0.001831
0.009450,-0.003220,-0.002441,0.002594
0.009500,-0.001939,0.004883,0.004425
0.009550,-0.001299,0.012207,-0.016022
0.009600,-0.002001,-0.003052,0.007935
0.009650,-0.003065,0.009155,-0.007324
0.009700,-0.003724,0.005493,-0.015869
0.009750,-0.003641,0.003662,-0.018005
0.009800,-0.003173,-0.009766,-0.011597
0.009850,-0.002975,0.006104,-0.010376
0.009900,-0.002863,-0.000610,-0.016785
0.009950,-0.002705,-0.004272,-0.033875
0.010000,-0.002882,-0.003052,0.004272
0.010050,-0.003255,-0.002441,-0.019379
0.010100,-0.002755,0.001831,-0.004425
0.010150,-0.001376,0.012207,-0.001984
0.010200,-0.000599,0.003052,-0.038452
0.010250,-0.000797,0.001831,-0.016022
0.010300,-0.000472,-0.004272,-0.012054
0.010350,0.000111,-0.009155,-0.009918
0.010400,-0.000474,-0.003052,-0.010376
0.010450,-0.001264,0.002441,-0.032501
0.010500,-0.001193,-0.000610,-0.013123
0.010550,-0.001128,0.009155,-0.037384
0.010600,-0.001470,0.000610,-0.018768
0.010650,-0.001987,0.006714,-0.027313
0.010700,-0.002164,0.004883,0.005646
0.010750,-0.001592,-0.002441,-0.006104
0.010800,-0.000685,0.006714,-0.007935
0.010850,0.000685,-0.014648,0.014801
0.010900,0.001810,-0.007324,-0.002747
0.010950,0.001833,-0.009155,-0.001984
0.011000,0.001743,0.001221,-0.033875
0.011050,0.001756,0.000610,-0.017090
0.011100,0.000897,0.002441,-0.014648
0.011150,-0.000235,-0.007324,0.001068
0.011200,-0.000938,0.017090,-0.054474
0.011250,-0.001323,0.010376,-0.038300
0.011300,-0.001012,0.003052,-0.017700
0.011350,-0.000658,0.020142,-0.041199
0.011400,-0.000983,-0.005493,0.002594
0.011450,-0.001529,-0.006714,-0.013580
0.011500,-0.002116,-0.008545,-0.012665
0.011550,-0.002781,-0.001831,-0.011597
0.011600,-0.003029,0.000000,-0.010223
0.011650,-0.002545,0.006104,-0.021973
0.011700,-0.001761,0.009155,-0.007172
0.011750,-0.001039,0.000610,-0.022278
0.011800,-0.000345,0.000000,-0.040588
0.011850,-0.000037,0.003662,-0.004425
0.011900,-0.000518,-0.005493,-0.007629
0.011950,-0.001649,0.003662,-0.010223
0.012000,-0.002499,0.005493,-0.017395
0.012050,-0.002749,0.002441,-0.018463
0.012100,-0.003292,0.002441,-0.010071
0.012150,-0.003526,-0.005493,-0.023651
0.012200,-0.002856,-0.004272,-0.025024
0.012250,-0.002497,0.003052,-0.042419
0.012300,-0.003014,-0.010376,-0.012054
0.012350,-0.003210,-0.009766,-0.009155
0.012400,-0.002402,-0.004883,-0.004578
0.012450,-0.001717,-0.006104,-0.003052
0.012500,-0.001990,-0.001221,-0.020599
0.012550,-0.001860,0.001221,-0.006104
0.012600,-0.001037,0.001831,-0.007477
0.012650,-0.000761,-0.004272,-0.010834
0.012700,-0.001091,-0.001221,-0.017090
0.012750,-0.001150,0.008545,-0.014648
0.012800,-0.000243,0.002441,-0.019531
0.012850,-0.000145,-0.010376,0.005646
0.012900,-0.000916,-0.003662,-0.000916
0.012950,-0.000690,-0.007935,-0.016632
0.013000,-0.000893,-0.001831,0.000916
0.013050,-0.002098,0.001831,0.001678
0.013100,-0.002423,-0.002441,-0.020599
0.013150,-0.001728,-0.012817,-0.015717
0.013200,-0.001400,-0.003052,-0.036926
0.013250,-0.001876,0.000000,-0.040588
0.013300,-0.001795,-0.000610,-0.019989
0.013350,-0.000568,-0.009766,-0.012665
0.013400,0.000622,0.000610,-0.004730
0.013450,0.001464,-0.005493,-0.003662
0.013500,0.002071,0.007935,-0.010834
0.013550,0.001784,0.000000,-0.022736
0.013600,0.000575,0.012207,-0.000610
0.013650,-0.000526,0.003662,-0.027924
0.013700,-0.001079,-0.004883,-0.008545
0.013750,-0.001647,0.000610,-0.008545
0.013800,-0.002225,-0.013428,-0.016937
0.013850,-0.002339,-0.000610,-0.020752
0.013900,-0.001739,0.000610,-0.017700
0.013950,-0.000910,0.006714,0.004578
0.014000,-0.000449,0.001221,-0.013580
0.014050,-0.000114,-0.005493,-0.008392
0.014100,-0.000214,-0.005493,-0.013428
0.014150,0.000255,0.000000,-0.018158
0.014200,0.001599,0.000000,-0.013885
0.014250,0.001782,0.000610,-0.014343
0.014300,0.001957,0.001221,-0.007019
0.014350,0.003161,-0.008545,-0.009308
0.014400,0.004063,0.007324,-0.011292
0.014450,0.004467,0.007324,-0.025177
0.014500,0.004597,0.004272,-0.002441
0.014550,0.004076,0.008545,-0.008240
0.014600,0.002334,-0.001221,-0.016174
